Cooling Curve : Full Field:p/k=6:Log(To) = 7.5:[Fe/H] = -1.0											

log(T)	ne	nH	nt	log(lambda net)	log(lambda norm)	log(U)	log(taucool)	P12	rho24	Ci	mubar

7.500	0.0339	0.0300	0.0319	-25.85	-22.89	-9.366	14.70	289.5	0.072	673.9	0.968
7.444	0.0408	0.0360	0.0384	-25.71	-22.91	-9.341	14.67	303.7	0.077	629.5	0.968
7.396	0.0472	0.0417	0.0444	-25.60	-22.92	-9.326	14.63	314.7	0.089	595.4	0.968
7.346	0.0545	0.0481	0.0512	-25.49	-22.94	-9.314	14.60	323.9	0.102	562.5	0.968
7.296	0.0626	0.0553	0.0589	-25.39	-22.95	-9.303	14.57	331.7	0.118	531.0	0.968
7.245	0.0718	0.0634	0.0675	-25.28	-22.96	-9.295	14.53	338.4	0.135	500.9	0.968
7.194	0.0821	0.0726	0.0773	-25.17	-22.97	-9.287	14.48	344.2	0.154	472.2	0.968
7.143	0.0938	0.0829	0.0883	-25.06	-22.98	-9.281	14.44	349.1	0.176	445.0	0.968
7.091	0.1070	0.0946	0.1007	-24.95	-22.99	-9.275	14.39	353.4	0.201	419.2	0.968
7.039	0.1220	0.1078	0.1148	-24.85	-22.99	-9.270	14.35	357.2	0.229	394.7	0.968
6.986	0.1388	0.1227	0.1306	-24.74	-23.00	-9.267	14.30	360.4	0.261	371.6	0.968
6.934	0.1579	0.1396	0.1486	-24.64	-23.01	-9.263	14.26	363.3	0.297	349.8	0.968
6.881	0.1795	0.1587	0.1689	-24.54	-23.02	-9.261	14.22	365.8	0.337	329.2	0.968
6.828	0.2040	0.1803	0.1919	-24.44	-23.03	-9.258	14.18	368.0	0.383	309.8	0.968
6.775	0.2316	0.2048	0.2180	-24.33	-23.04	-9.256	14.12	369.9	0.435	291.5	0.968
6.722	0.2629	0.2324	0.2474	-24.22	-23.04	-9.254	14.07	371.6	0.494	274.2	0.968
6.669	0.2983	0.2637	0.2807	-24.11	-23.03	-9.252	14.02	373.0	0.561	257.9	0.968
6.616	0.3384	0.2992	0.3184	-23.99	-23.02	-9.250	13.95	374.3	0.636	242.6	0.968
6.562	0.3837	0.3392	0.3611	-23.87	-23.01	-9.250	13.89	375.5	0.721	228.2	0.968
6.509	0.4350	0.3846	0.4094	-23.75	-23.00	-9.248	13.83	376.5	0.818	214.6	0.968
6.456	0.4930	0.4359	0.4640	-23.61	-22.97	-9.247	13.74	377.4	0.927	201.8	0.968
6.402	0.5587	0.4940	0.5258	-23.47	-22.93	-9.247	13.66	378.1	1.050	189.7	0.969
6.349	0.6330	0.5598	0.5958	-23.30	-22.87	-9.245	13.54	378.8	1.190	178.4	0.969
6.295	0.7171	0.6342	0.6750	-23.11	-22.79	-9.245	13.41	379.4	1.348	167.7	0.969
6.242	0.8123	0.7184	0.7646	-22.93	-22.72	-9.244	13.28	379.9	1.527	157.7	0.969
6.188	0.9200	0.8137	0.8660	-22.79	-22.70	-9.244	13.20	380.4	1.730	148.3	0.969
6.135	1.042	0.9215	0.9808	-22.69	-22.70	-9.243	13.15	380.8	1.959	139.4	0.969
6.081	1.180	1.044	1.111	-22.58	-22.70	-9.243	13.09	381.2	2.219	131.1	0.969
6.027	1.336	1.182	1.258	-22.46	-22.68	-9.243	13.03	381.5	2.512	123.2	0.969
5.974	1.513	1.338	1.424	-22.31	-22.65	-9.242	12.93	381.8	2.845	115.8	0.969
5.920	1.712	1.515	1.612	-22.16	-22.60	-9.242	12.84	382.0	3.221	108.9	0.969
5.867	1.939	1.715	1.825	-21.97	-22.52	-9.241	12.70	382.2	3.646	102.4	0.969
5.813	2.194	1.941	2.066	-21.75	-22.41	-9.241	12.54	382.4	4.126	96.27	0.969
5.760	2.482	2.196	2.337	-21.54	-22.31	-9.241	12.38	382.6	4.669	90.52	0.969
5.706	2.809	2.485	2.645	-21.38	-22.25	-9.241	12.27	382.7	5.284	85.11	0.969
5.652	3.179	2.813	2.994	-21.25	-22.23	-9.241	12.20	382.8	5.981	80.01	0.969
5.599	3.598	3.184	3.389	-21.11	-22.20	-9.241	12.11	383.0	6.770	75.21	0.969
5.545	4.072	3.603	3.835	-20.92	-22.11	-9.241	11.97	383.0	7.660	70.71	0.969
5.492	4.605	4.075	4.337	-20.69	-21.99	-9.240	11.80	383.1	8.664	66.50	0.969
5.438	5.210	4.611	4.908	-20.47	-21.88	-9.241	11.63	383.2	9.804	62.52	0.969
5.386	5.877	5.201	5.536	-20.28	-21.79	-9.240	11.49	383.2	11.06	58.87	0.969
5.334	6.629	5.868	6.246	-20.12	-21.74	-9.240	11.39	383.3	12.48	55.43	0.969
5.281	7.493	6.633	7.060	-20.00	-21.72	-9.240	11.32	383.3	14.10	52.13	0.969
5.227	8.479	7.508	7.991	-19.89	-21.72	-9.240	11.26	383.3	15.96	49.00	0.969
5.173	9.594	8.497	9.044	-19.79	-21.73	-9.240	11.22	383.3	18.07	46.06	0.969
5.119	10.85	9.617	10.24	-19.71	-21.75	-9.241	11.19	383.3	20.45	43.30	0.970
5.066	12.28	10.88	11.58	-19.64	-21.79	-9.240	11.18	383.2	23.14	40.69	0.970
5.012	13.89	12.32	13.11	-19.57	-21.83	-9.240	11.16	383.1	26.19	38.25	0.970
4.958	15.70	13.94	14.84	-19.52	-21.89	-9.241	11.16	382.9	29.64	35.95	0.971
4.905	17.73	15.77	16.79	-19.47	-21.95	-9.241	11.16	382.7	33.53	33.78	0.971
4.851	20.03	17.84	18.99	-19.43	-22.01	-9.242	11.18	382.4	37.94	31.75	0.972
4.797	22.63	20.20	21.50	-19.39	-22.08	-9.242	11.19	382.0	42.94	29.83	0.973
4.744	25.55	22.86	24.33	-19.35	-22.15	-9.242	11.20	381.6	48.60	28.02	0.974
4.690	28.85	25.87	27.53	-19.31	-22.21	-9.243	11.22	381.1	55.00	26.32	0.975
4.638	32.45	29.15	31.03	-19.27	-22.27	-9.243	11.23	380.8	61.98	24.79	0.976
4.591	36.09	32.49	34.58	-19.21	-22.31	-9.244	11.21	380.4	69.07	23.47	0.977
4.548	39.77	35.88	38.19	-19.15	-22.33	-9.244	11.20	380.0	76.28	22.32	0.978
4.490	45.33	41.02	43.66	-19.04	-22.34	-9.244	11.14	379.4	87.22	20.86	0.980
4.439	50.80	46.14	49.11	-18.95	-22.35	-9.245	11.10	378.7	98.10	19.65	0.982
4.394	56.11	51.17	54.47	-18.89	-22.37	-9.246	11.09	377.9	108.8	18.64	0.984
4.341	62.90	57.74	61.46	-18.84	-22.43	-9.248	11.08	376.7	122.8	17.52	0.987
4.295	69.37	64.19	68.32	-18.84	-22.51	-9.250	11.13	375.2	136.5	16.58	0.991
4.254	75.57	70.59	75.13	-18.86	-22.61	-9.252	11.18	373.4	150.1	15.77	0.996
4.207	82.96	78.62	83.68	-18.92	-22.76	-9.255	11.28	370.7	167.1	14.89	1.003
4.164	89.95	86.83	92.42	-19.00	-22.92	-9.259	11.40	367.3	184.6	14.11	1.012
4.123	96.53	95.51	101.7	-19.11	-23.10	-9.264	11.54	362.9	203.1	13.37	1.025
4.080	102.7	105.3	112.0	-19.26	-23.32	-9.272	11.72	356.7	223.8	12.63	1.042
4.030	107.9	118.1	125.7	-19.53	-23.66	-9.285	12.01	345.9	251.1	11.74	1.075