Cooling Curve : Zero Field:p/k=6:Log(To) = 7.5:Zero Metals											

log(T)	ne	nH	nt	log(lambda net)	log(lambda norm)	log(U)	log(taucool)	P12	rho24	Ci	mubar

7.500	0.0338	0.0300	0.0319	-25.89	-22.92	-9.366	14.74	289.1	0.072	674.9	0.965
7.444	0.0407	0.0361	0.0384	-25.75	-22.95	-9.342	14.70	303.3	0.076	630.5	0.965
7.395	0.0471	0.0418	0.0444	-25.65	-22.97	-9.327	14.68	314.2	0.088	596.3	0.965
7.346	0.0543	0.0482	0.0513	-25.54	-22.99	-9.314	14.65	323.4	0.102	563.4	0.965
7.296	0.0625	0.0554	0.0589	-25.44	-23.01	-9.304	14.62	331.2	0.117	531.8	0.965
7.245	0.0716	0.0635	0.0675	-25.34	-23.03	-9.296	14.59	337.9	0.134	501.6	0.965
7.194	0.0819	0.0726	0.0773	-25.25	-23.05	-9.288	14.56	343.6	0.154	472.9	0.965
7.142	0.0936	0.0830	0.0883	-25.15	-23.07	-9.282	14.53	348.6	0.176	445.6	0.965
7.091	0.1068	0.0947	0.1007	-25.06	-23.09	-9.276	14.50	352.9	0.200	419.8	0.965
7.038	0.1217	0.1079	0.1148	-24.97	-23.11	-9.272	14.47	356.6	0.228	395.3	0.965
6.986	0.1385	0.1228	0.1307	-24.87	-23.13	-9.268	14.43	359.9	0.260	372.2	0.965
6.933	0.1576	0.1397	0.1486	-24.78	-23.15	-9.265	14.40	362.7	0.295	350.4	0.965
6.881	0.1791	0.1588	0.1690	-24.68	-23.16	-9.261	14.36	365.2	0.336	329.7	0.965
6.828	0.2035	0.1804	0.1920	-24.59	-23.18	-9.259	14.33	367.4	0.382	310.3	0.965
6.775	0.2311	0.2049	0.2180	-24.50	-23.20	-9.256	14.29	369.3	0.433	291.9	0.965
6.722	0.2623	0.2326	0.2474	-24.41	-23.22	-9.255	14.26	371.0	0.492	274.6	0.965
6.669	0.2977	0.2639	0.2808	-24.31	-23.24	-9.253	14.22	372.5	0.558	258.3	0.965
6.616	0.3376	0.2993	0.3185	-24.22	-23.25	-9.251	14.18	373.8	0.633	243.0	0.965
6.562	0.3829	0.3394	0.3611	-24.13	-23.27	-9.250	14.15	374.9	0.718	228.5	0.965
6.509	0.4341	0.3848	0.4094	-24.03	-23.28	-9.249	14.10	375.9	0.814	214.9	0.965
6.456	0.4920	0.4362	0.4641	-23.94	-23.29	-9.247	14.07	376.8	0.923	202.1	0.965
6.402	0.5576	0.4943	0.5259	-23.84	-23.31	-9.247	14.03	377.6	1.045	190.0	0.965
6.349	0.6317	0.5601	0.5959	-23.74	-23.32	-9.246	13.98	378.3	1.185	178.7	0.965
6.295	0.7157	0.6345	0.6751	-23.63	-23.32	-9.246	13.93	378.9	1.342	168.0	0.965
6.242	0.8107	0.7187	0.7647	-23.53	-23.32	-9.244	13.88	379.4	1.520	158.0	0.965
6.188	0.9183	0.8141	0.8662	-23.43	-23.33	-9.244	13.83	379.9	1.722	148.5	0.965
6.134	1.040	0.9220	0.9810	-23.33	-23.33	-9.244	13.79	380.3	1.950	139.6	0.965
6.081	1.178	1.044	1.111	-23.22	-23.34	-9.243	13.73	380.6	2.208	131.3	0.965
6.027	1.334	1.182	1.258	-23.11	-23.34	-9.243	13.68	381.0	2.501	123.4	0.965
5.974	1.510	1.339	1.424	-23.00	-23.34	-9.242	13.62	381.3	2.832	116.0	0.965
5.920	1.710	1.516	1.613	-22.89	-23.33	-9.242	13.57	381.5	3.206	109.1	0.965
5.866	1.936	1.716	1.826	-22.77	-23.32	-9.242	13.50	381.7	3.630	102.6	0.965
5.813	2.191	1.943	2.067	-22.66	-23.31	-9.242	13.45	381.9	4.109	96.41	0.965
5.759	2.481	2.199	2.340	-22.53	-23.30	-9.242	13.37	382.1	4.652	90.63	0.965
5.705	2.808	2.490	2.649	-22.41	-23.28	-9.242	13.30	382.2	5.266	85.20	0.965
5.652	3.179	2.818	2.999	-22.28	-23.25	-9.241	13.23	382.4	5.961	80.09	0.965
5.598	3.599	3.190	3.394	-22.14	-23.23	-9.241	13.14	382.5	6.748	75.29	0.965
5.544	4.073	3.611	3.842	-22.00	-23.19	-9.241	13.05	382.6	7.638	70.78	0.965
5.490	4.611	4.087	4.349	-21.85	-23.15	-9.242	12.96	382.7	8.646	66.53	0.965
5.437	5.219	4.627	4.923	-21.69	-23.10	-9.241	12.85	382.8	9.786	62.54	0.965
5.383	5.907	5.237	5.572	-21.53	-23.05	-9.241	12.75	382.8	11.08	58.79	0.965
5.329	6.685	5.927	6.307	-21.36	-22.98	-9.241	12.63	382.9	12.54	55.26	0.965
5.276	7.566	6.709	7.138	-21.18	-22.91	-9.240	12.50	383.0	14.19	51.95	0.965
5.222	8.563	7.593	8.079	-20.99	-22.83	-9.241	12.37	383.0	16.06	48.83	0.965
5.168	9.689	8.594	9.144	-20.79	-22.74	-9.241	12.22	383.0	18.18	45.90	0.965
5.114	10.96	9.727	10.35	-20.59	-22.64	-9.241	12.07	382.9	20.57	43.14	0.965
5.061	12.39	11.00	11.71	-20.39	-22.55	-9.241	11.93	382.8	23.27	40.55	0.966
5.007	13.99	12.45	13.24	-20.24	-22.51	-9.242	11.83	382.5	26.33	38.11	0.967
4.955	15.75	14.05	14.95	-20.14	-22.51	-9.242	11.78	382.0	29.72	35.85	0.968
4.904	17.62	15.78	16.79	-20.09	-22.56	-9.243	11.78	381.3	33.37	33.80	0.970
4.854	19.68	17.70	18.84	-20.07	-22.63	-9.244	11.81	380.4	37.45	31.87	0.972
4.804	22.00	19.90	21.18	-20.06	-22.72	-9.245	11.85	379.3	42.10	30.02	0.975
4.751	24.68	22.48	23.92	-20.03	-22.80	-9.246	11.87	378.1	47.54	28.20	0.978
4.697	27.74	25.44	27.07	-19.94	-22.82	-9.248	11.83	376.7	53.81	26.46	0.982
4.631	32.12	29.64	31.54	-19.77	-22.77	-9.249	11.72	375.5	62.69	24.48	0.985
4.580	35.98	33.32	35.45	-19.60	-22.70	-9.250	11.60	374.9	70.47	23.07	0.987
4.534	39.93	37.08	39.45	-19.43	-22.62	-9.250	11.48	374.4	78.42	21.85	0.988
4.492	43.82	40.80	43.41	-19.27	-22.55	-9.251	11.36	373.9	86.30	20.82	0.989
4.438	49.39	46.16	49.12	-19.09	-22.48	-9.252	11.23	373.2	97.64	19.55	0.991
4.393	54.59	51.24	54.52	-18.99	-22.46	-9.253	11.17	372.4	108.4	18.54	0.993
4.341	61.08	57.73	61.42	-18.91	-22.49	-9.255	11.14	371.1	122.1	17.43	0.997
4.297	67.14	63.99	68.09	-18.89	-22.55	-9.256	11.16	369.6	135.3	16.53	1.001
4.248	74.18	71.62	76.20	-18.92	-22.67	-9.259	11.24	367.3	151.5	15.57	1.007
4.205	80.60	79.08	84.14	-18.97	-22.81	-9.262	11.32	364.4	167.3	14.76	1.015
4.159	87.34	87.86	93.49	-19.07	-22.98	-9.268	11.46	360.0	185.8	13.92	1.028
4.118	92.78	96.47	102.6	-19.19	-23.16	-9.275	11.60	354.3	204.0	13.18	1.044
4.076	97.05	106.3	113.1	-19.33	-23.37	-9.285	11.76	345.8	224.8	12.40	1.070
4.034	98.55	117.1	124.6	-19.52	-23.61	-9.301	11.96	333.3	247.7	11.60	1.110